# extracted from file POLDER_spect, available from http://smsc.cnes.fr/POLDER/GP_instrument.htm
# Spectral sensitivities the POLDER bands are given with a resolution of 1 nm
# (AC). These sensitivities have been measured before launch an integrate the
# transmission of filters and optics, as well as the CCD spectral response.
410.0 0.000
410.5 0.000
411.0 0.000
411.5 0.000
412.0 0.000
412.5 0.000
413.0 0.000
413.5 0.000
414.0 0.000
414.5 0.000
415.0 0.000
415.5 0.000
416.0 0.000
416.5 0.000
417.0 0.000
417.5 0.000
418.0 0.000
418.5 0.000
419.0 0.000
419.5 0.000
420.0 0.000
420.5 0.000
421.0 0.000
421.5 0.000
422.0 0.000
422.5 0.000
423.0 0.000
423.5 0.000
424.0 0.000
424.5 0.000
425.0 0.000
425.5 0.000
426.0 0.000
426.5 0.000
427.0 0.000
427.5 0.000
428.0 0.000
428.5 0.000
429.0 0.000
429.5 0.000
430.0 0.000
430.5 0.000
431.0 0.000
431.5 0.000
432.0 0.000
432.5 0.000
433.0 0.000
433.5 0.000
434.0 0.000
434.5 0.000
435.0 0.000
435.5 0.000
436.0 0.000
436.5 0.000
437.0 0.000
437.5 0.000
438.0 0.000
438.5 0.000
439.0 0.000
439.5 0.000
440.0 0.000
440.5 0.000
441.0 0.000
441.5 0.000
442.0 0.000
442.5 0.000
443.0 0.000
443.5 0.000
444.0 0.000
444.5 0.000
445.0 0.000
445.5 0.000
446.0 0.000
446.5 0.000
447.0 0.000
447.5 0.000
448.0 0.000
448.5 0.000
449.0 0.000
449.5 0.000
450.0 0.000
450.5 0.000
451.0 0.000
451.5 0.000
452.0 0.000
452.5 0.000
453.0 0.000
453.5 0.000
454.0 0.000
454.5 0.000
455.0 0.000
455.5 0.000
456.0 0.000
456.5 0.000
457.0 0.000
457.5 0.000
458.0 0.000
458.5 0.000
459.0 0.000
459.5 0.000
460.0 0.002
460.5 0.002
461.0 0.002
461.5 0.001
462.0 0.001
462.5 0.001
463.0 0.002
463.5 0.002
464.0 0.002
464.5 0.002
465.0 0.003
465.5 0.002
466.0 0.002
466.5 0.002
467.0 0.003
467.5 0.003
468.0 0.004
468.5 0.004
469.0 0.005
469.5 0.005
470.0 0.006
470.5 0.007
471.0 0.007
471.5 0.009
472.0 0.010
472.5 0.011
473.0 0.013
473.5 0.015
474.0 0.018
474.5 0.021
475.0 0.024
475.5 0.029
476.0 0.034
476.5 0.043
477.0 0.052
477.5 0.064
478.0 0.077
478.5 0.097
479.0 0.118
479.5 0.150
480.0 0.184
480.5 0.232
481.0 0.282
481.5 0.347
482.0 0.412
482.5 0.488
483.0 0.563
483.5 0.638
484.0 0.710
484.5 0.770
485.0 0.825
485.5 0.858
486.0 0.889
486.5 0.914
487.0 0.937
487.5 0.946
488.0 0.954
488.5 0.956
489.0 0.958
489.5 0.956
490.0 0.954
490.5 0.952
491.0 0.952
491.5 0.961
492.0 0.969
492.5 0.972
493.0 0.976
493.5 0.977
494.0 0.979
494.5 0.985
495.0 0.990
495.5 0.996
496.0 0.999
496.5 0.995
497.0 0.987
497.5 0.963
498.0 0.936
498.5 0.891
499.0 0.841
499.5 0.769
500.0 0.696
500.5 0.616
501.0 0.538
501.5 0.466
502.0 0.396
502.5 0.337
503.0 0.281
503.5 0.239
504.0 0.199
504.5 0.170
505.0 0.142
505.5 0.121
506.0 0.101
506.5 0.085
507.0 0.071
507.5 0.061
508.0 0.052
508.5 0.046
509.0 0.039
509.5 0.034
510.0 0.030
510.5 0.026
511.0 0.023
511.5 0.021
512.0 0.019
512.5 0.017
513.0 0.015
513.5 0.013
514.0 0.012
514.5 0.011
515.0 0.010
515.5 0.009
516.0 0.009
516.5 0.008
517.0 0.008
517.5 0.007
518.0 0.006
518.5 0.006
519.0 0.000
519.5 0.000
520.0 0.000
520.5 0.000
521.0 0.000
521.5 0.000
522.0 0.000
522.5 0.000
523.0 0.000
523.5 0.000
524.0 0.000
524.5 0.000
525.0 0.000
525.5 0.000
526.0 0.000
526.5 0.000
527.0 0.000
527.5 0.000
528.0 0.000
528.5 0.000
529.0 0.000
529.5 0.000
530.0 0.000
530.5 0.000
531.0 0.000
531.5 0.000
532.0 0.000
532.5 0.000
533.0 0.000
533.5 0.000
534.0 0.000
534.5 0.000
535.0 0.000
535.5 0.000
536.0 0.000
536.5 0.000
537.0 0.000
537.5 0.000
538.0 0.000
538.5 0.000
539.0 0.000
539.5 0.000
540.0 0.000
540.5 0.000
541.0 0.000
541.5 0.000
542.0 0.000
542.5 0.000
543.0 0.000
543.5 0.000
544.0 0.000
544.5 0.000
545.0 0.000
545.5 0.000
546.0 0.000
546.5 0.000
547.0 0.000
547.5 0.000
548.0 0.000
548.5 0.000
549.0 0.000
549.5 0.000
550.0 0.000
550.5 0.000
551.0 0.000
551.5 0.000
552.0 0.000
552.5 0.000
553.0 0.000
553.5 0.000
554.0 0.000
554.5 0.000
555.0 0.000
555.5 0.000
556.0 0.000
556.5 0.000
557.0 0.000
557.5 0.000
558.0 0.000
558.5 0.000
559.0 0.000
559.5 0.000
560.0 0.000
560.5 0.000
561.0 0.000
561.5 0.000
562.0 0.000
562.5 0.000
563.0 0.000
563.5 0.000
564.0 0.000
564.5 0.000
565.0 0.000
565.5 0.000
566.0 0.000
566.5 0.000
567.0 0.000
567.5 0.000
568.0 0.000
568.5 0.000
569.0 0.000
569.5 0.000
570.0 0.000
570.5 0.000
571.0 0.000
571.5 0.000
572.0 0.000
572.5 0.000
573.0 0.000
573.5 0.000
574.0 0.000
574.5 0.000
575.0 0.000
575.5 0.000
576.0 0.000
576.5 0.000
577.0 0.000
577.5 0.000
578.0 0.000
578.5 0.000
579.0 0.000
579.5 0.000
580.0 0.000
580.5 0.000
581.0 0.000
581.5 0.000
582.0 0.000
582.5 0.000
583.0 0.000
583.5 0.000
584.0 0.000
584.5 0.000
585.0 0.000
585.5 0.000
586.0 0.000
586.5 0.000
587.0 0.000
587.5 0.000
588.0 0.000
588.5 0.000
589.0 0.000
589.5 0.000
590.0 0.000
590.5 0.000
591.0 0.000
591.5 0.000
592.0 0.000
592.5 0.000
593.0 0.000
593.5 0.000
594.0 0.000
594.5 0.000
595.0 0.000
595.5 0.000
596.0 0.000
596.5 0.000
597.0 0.000
597.5 0.000
598.0 0.000
598.5 0.000
599.0 0.000
599.5 0.000
600.0 0.000
600.5 0.000
601.0 0.000
601.5 0.000
602.0 0.000
602.5 0.000
603.0 0.000
603.5 0.000
604.0 0.000
604.5 0.000
605.0 0.000
605.5 0.000
606.0 0.000
606.5 0.000
607.0 0.000
607.5 0.000
608.0 0.000
608.5 0.000
609.0 0.000
609.5 0.000
610.0 0.000
610.5 0.000
611.0 0.000
611.5 0.000
612.0 0.000
612.5 0.000
613.0 0.000
613.5 0.000
614.0 0.000
614.5 0.000
615.0 0.000
615.5 0.000
616.0 0.000
616.5 0.000
617.0 0.000
617.5 0.000
618.0 0.000
618.5 0.000
619.0 0.000
619.5 0.000
620.0 0.000
620.5 0.000
621.0 0.000
621.5 0.000
622.0 0.000
622.5 0.000
623.0 0.000
623.5 0.000
624.0 0.000
624.5 0.000
625.0 0.000
625.5 0.000
626.0 0.000
626.5 0.000
627.0 0.000
627.5 0.000
628.0 0.000
628.5 0.000
629.0 0.000
629.5 0.000
630.0 0.000
630.5 0.000
631.0 0.000
631.5 0.000
632.0 0.000
632.5 0.000
633.0 0.000
633.5 0.000
634.0 0.000
634.5 0.000
635.0 0.000
635.5 0.000
636.0 0.000
636.5 0.000
637.0 0.000
637.5 0.000
638.0 0.000
638.5 0.000
639.0 0.000
639.5 0.000
640.0 0.000
640.5 0.000
641.0 0.000
641.5 0.000
642.0 0.000
642.5 0.000
643.0 0.000
643.5 0.000
644.0 0.000
644.5 0.000
645.0 0.000
645.5 0.000
646.0 0.000
646.5 0.000
647.0 0.000
647.5 0.000
648.0 0.000
648.5 0.000
649.0 0.000
649.5 0.000
650.0 0.000
650.5 0.000
651.0 0.000
651.5 0.000
652.0 0.000
652.5 0.000
653.0 0.000
653.5 0.000
654.0 0.000
654.5 0.000
655.0 0.000
655.5 0.000
656.0 0.000
656.5 0.000
657.0 0.000
657.5 0.000
658.0 0.000
658.5 0.000
659.0 0.000
659.5 0.000
660.0 0.000
660.5 0.000
661.0 0.000
661.5 0.000
662.0 0.000
662.5 0.000
663.0 0.000
663.5 0.000
664.0 0.000
664.5 0.000
665.0 0.000
665.5 0.000
666.0 0.000
666.5 0.000
667.0 0.000
667.5 0.000
668.0 0.000
668.5 0.000
669.0 0.000
669.5 0.000
670.0 0.000
670.5 0.000
671.0 0.000
671.5 0.000
672.0 0.000
672.5 0.000
673.0 0.000
673.5 0.000
674.0 0.000
674.5 0.000
675.0 0.000
675.5 0.000
676.0 0.000
676.5 0.000
677.0 0.000
677.5 0.000
678.0 0.000
678.5 0.000
679.0 0.000
679.5 0.000
680.0 0.000
680.5 0.000
681.0 0.000
681.5 0.000
682.0 0.000
682.5 0.000
683.0 0.000
683.5 0.000
684.0 0.000
684.5 0.000
685.0 0.000
685.5 0.000
686.0 0.000
686.5 0.000
687.0 0.000
687.5 0.000
688.0 0.000
688.5 0.000
689.0 0.000
689.5 0.000
690.0 0.000
690.5 0.000
691.0 0.000
691.5 0.000
692.0 0.000
692.5 0.000
693.0 0.000
693.5 0.000
694.0 0.000
694.5 0.000
695.0 0.000
695.5 0.000
696.0 0.000
696.5 0.000
697.0 0.000
697.5 0.000
698.0 0.000
698.5 0.000
699.0 0.000
699.5 0.000
700.0 0.000
700.5 0.000
701.0 0.000
701.5 0.000
702.0 0.000
702.5 0.000
703.0 0.000
703.5 0.000
704.0 0.000
704.5 0.000
705.0 0.000
705.5 0.000
706.0 0.000
706.5 0.000
707.0 0.000
707.5 0.000
708.0 0.000
708.5 0.000
709.0 0.000
709.5 0.000
710.0 0.000
710.5 0.000
711.0 0.000
711.5 0.000
712.0 0.000
712.5 0.000
713.0 0.000
713.5 0.000
714.0 0.000
714.5 0.000
715.0 0.000
715.5 0.000
716.0 0.000
716.5 0.000
717.0 0.000
717.5 0.000
718.0 0.000
718.5 0.000
719.0 0.000
719.5 0.000
720.0 0.000
720.5 0.000
721.0 0.000
721.5 0.000
722.0 0.000
722.5 0.000
723.0 0.000
723.5 0.000
724.0 0.000
724.5 0.000
725.0 0.000
725.5 0.000
726.0 0.000
726.5 0.000
727.0 0.000
727.5 0.000
728.0 0.000
728.5 0.000
729.0 0.000
729.5 0.000
730.0 0.000
730.5 0.000
731.0 0.000
731.5 0.000
732.0 0.000
732.5 0.000
733.0 0.000
733.5 0.000
734.0 0.000
734.5 0.000
735.0 0.000
735.5 0.000
736.0 0.000
736.5 0.000
737.0 0.000
737.5 0.000
738.0 0.000
738.5 0.000
739.0 0.000
739.5 0.000
740.0 0.000
740.5 0.000
741.0 0.000
741.5 0.000
742.0 0.000
742.5 0.000
743.0 0.000
743.5 0.000
744.0 0.000
744.5 0.000
745.0 0.000
745.5 0.000
746.0 0.000
746.5 0.000
747.0 0.000
747.5 0.000
748.0 0.000
748.5 0.000
749.0 0.000
749.5 0.000
750.0 0.000
750.5 0.000
751.0 0.000
751.5 0.000
752.0 0.000
752.5 0.000
753.0 0.000
753.5 0.000
754.0 0.000
754.5 0.000
755.0 0.000
755.5 0.000
756.0 0.000
756.5 0.000
757.0 0.000
757.5 0.000
758.0 0.000
758.5 0.000
759.0 0.000
759.5 0.000
760.0 0.000
760.5 0.000
761.0 0.000
761.5 0.000
762.0 0.000
762.5 0.000
763.0 0.000
763.5 0.000
764.0 0.000
764.5 0.000
765.0 0.000
765.5 0.000
766.0 0.000
766.5 0.000
767.0 0.000
767.5 0.000
768.0 0.000
768.5 0.000
769.0 0.000
769.5 0.000
770.0 0.000
770.5 0.000
771.0 0.000
771.5 0.000
772.0 0.000
772.5 0.000
773.0 0.000
773.5 0.000
774.0 0.000
774.5 0.000
775.0 0.000
775.5 0.000
776.0 0.000
776.5 0.000
777.0 0.000
777.5 0.000
778.0 0.000
778.5 0.000
779.0 0.000
779.5 0.000
780.0 0.000
780.5 0.000
781.0 0.000
781.5 0.000
782.0 0.000
782.5 0.000
783.0 0.000
783.5 0.000
784.0 0.000
784.5 0.000
785.0 0.000
785.5 0.000
786.0 0.000
786.5 0.000
787.0 0.000
787.5 0.000
788.0 0.000
788.5 0.000
789.0 0.000
789.5 0.000
790.0 0.000
790.5 0.000
791.0 0.000
791.5 0.000
792.0 0.000
792.5 0.000
793.0 0.000
793.5 0.000
794.0 0.000
794.5 0.000
795.0 0.000
795.5 0.000
796.0 0.000
796.5 0.000
797.0 0.000
797.5 0.000
798.0 0.000
798.5 0.000
799.0 0.000
799.5 0.000
800.0 0.000
800.5 0.000
801.0 0.000
801.5 0.000
802.0 0.000
802.5 0.000
803.0 0.000
803.5 0.000
804.0 0.000
804.5 0.000
805.0 0.000
805.5 0.000
806.0 0.000
806.5 0.000
807.0 0.000
807.5 0.000
808.0 0.000
808.5 0.000
809.0 0.000
809.5 0.000
810.0 0.000
810.5 0.000
811.0 0.000
811.5 0.000
812.0 0.000
812.5 0.000
813.0 0.000
813.5 0.000
814.0 0.000
814.5 0.000
815.0 0.000
815.5 0.000
816.0 0.000
816.5 0.000
817.0 0.000
817.5 0.000
818.0 0.000
818.5 0.000
819.0 0.000
819.5 0.000
820.0 0.000
820.5 0.000
821.0 0.000
821.5 0.000
822.0 0.000
822.5 0.000
823.0 0.000
823.5 0.000
824.0 0.000
824.5 0.000
825.0 0.000
825.5 0.000
826.0 0.000
826.5 0.000
827.0 0.000
827.5 0.000
828.0 0.000
828.5 0.000
829.0 0.000
829.5 0.000
830.0 0.000
830.5 0.000
831.0 0.000
831.5 0.000
832.0 0.000
832.5 0.000
833.0 0.000
833.5 0.000
834.0 0.000
834.5 0.000
835.0 0.000
835.5 0.000
836.0 0.000
836.5 0.000
837.0 0.000
837.5 0.000
838.0 0.000
838.5 0.000
839.0 0.000
839.5 0.000
840.0 0.000
840.5 0.000
841.0 0.000
841.5 0.000
842.0 0.000
842.5 0.000
843.0 0.000
843.5 0.000
844.0 0.000
844.5 0.000
845.0 0.000
845.5 0.000
846.0 0.000
846.5 0.000
847.0 0.000
847.5 0.000
848.0 0.000
848.5 0.000
849.0 0.000
849.5 0.000
850.0 0.000
850.5 0.000
851.0 0.000
851.5 0.000
852.0 0.000
852.5 0.000
853.0 0.000
853.5 0.000
854.0 0.000
854.5 0.000
855.0 0.000
855.5 0.000
856.0 0.000
856.5 0.000
857.0 0.000
857.5 0.000
858.0 0.000
858.5 0.000
859.0 0.000
859.5 0.000
860.0 0.000
860.5 0.000
861.0 0.000
861.5 0.000
862.0 0.000
862.5 0.000
863.0 0.000
863.5 0.000
864.0 0.000
864.5 0.000
865.0 0.000
865.5 0.000
866.0 0.000
866.5 0.000
867.0 0.000
867.5 0.000
868.0 0.000
868.5 0.000
869.0 0.000
869.5 0.000
870.0 0.000
870.5 0.000
871.0 0.000
871.5 0.000
872.0 0.000
872.5 0.000
873.0 0.000
873.5 0.000
874.0 0.000
874.5 0.000
875.0 0.000
875.5 0.000
876.0 0.000
876.5 0.000
877.0 0.000
877.5 0.000
878.0 0.000
878.5 0.000
879.0 0.000
879.5 0.000
880.0 0.000
880.5 0.000
881.0 0.000
881.5 0.000
882.0 0.000
882.5 0.000
883.0 0.000
883.5 0.000
884.0 0.000
884.5 0.000
885.0 0.000
885.5 0.000
886.0 0.000
886.5 0.000
887.0 0.000
887.5 0.000
888.0 0.000
888.5 0.000
889.0 0.000
889.5 0.000
890.0 0.000
890.5 0.000
891.0 0.000
891.5 0.000
892.0 0.000
892.5 0.000
893.0 0.000
893.5 0.000
894.0 0.000
894.5 0.000
895.0 0.000
895.5 0.000
896.0 0.000
896.5 0.000
897.0 0.000
897.5 0.000
898.0 0.000
898.5 0.000
899.0 0.000
899.5 0.000
900.0 0.000
900.5 0.000
901.0 0.000
901.5 0.000
902.0 0.000
902.5 0.000
903.0 0.000
903.5 0.000
904.0 0.000
904.5 0.000
905.0 0.000
905.5 0.000
906.0 0.000
906.5 0.000
907.0 0.000
907.5 0.000
908.0 0.000
908.5 0.000
909.0 0.000
909.5 0.000
910.0 0.000
910.5 0.000
911.0 0.000
911.5 0.000
912.0 0.000
912.5 0.000
913.0 0.000
913.5 0.000
914.0 0.000
914.5 0.000
915.0 0.000
915.5 0.000
916.0 0.000
916.5 0.000
917.0 0.000
917.5 0.000
918.0 0.000
918.5 0.000
919.0 0.000
919.5 0.000
920.0 0.000
920.5 0.000
921.0 0.000
921.5 0.000
922.0 0.000
922.5 0.000
923.0 0.000
923.5 0.000
924.0 0.000
924.5 0.000
925.0 0.000
925.5 0.000
926.0 0.000
926.5 0.000
927.0 0.000
927.5 0.000
928.0 0.000
928.5 0.000
929.0 0.000
929.5 0.000
930.0 0.000
930.5 0.000
931.0 0.000
931.5 0.000
932.0 0.000
932.5 0.000
933.0 0.000
933.5 0.000
934.0 0.000
934.5 0.000
935.0 0.000
935.5 0.000
936.0 0.000
936.5 0.000
937.0 0.000
937.5 0.000
938.0 0.000
938.5 0.000
939.0 0.000
939.5 0.000
940.0 0.000
