# extracted from file POLDER_spect, available from http://smsc.cnes.fr/POLDER/GP_instrument.htm
# Spectral sensitivities the POLDER bands are given with a resolution of 1 nm
# (AC). These sensitivities have been measured before launch an integrate the
# transmission of filters and optics, as well as the CCD spectral response.
410.0 0.000
410.5 0.000
411.0 0.000
411.5 0.000
412.0 0.000
412.5 0.000
413.0 0.000
413.5 0.000
414.0 0.000
414.5 0.000
415.0 0.000
415.5 0.000
416.0 0.000
416.5 0.000
417.0 0.000
417.5 0.000
418.0 0.000
418.5 0.000
419.0 0.000
419.5 0.000
420.0 0.000
420.5 0.000
421.0 0.000
421.5 0.000
422.0 0.000
422.5 0.000
423.0 0.000
423.5 0.000
424.0 0.000
424.5 0.000
425.0 0.000
425.5 0.000
426.0 0.000
426.5 0.000
427.0 0.000
427.5 0.000
428.0 0.000
428.5 0.000
429.0 0.000
429.5 0.000
430.0 0.000
430.5 0.000
431.0 0.000
431.5 0.000
432.0 0.000
432.5 0.000
433.0 0.000
433.5 0.000
434.0 0.000
434.5 0.000
435.0 0.000
435.5 0.000
436.0 0.000
436.5 0.000
437.0 0.000
437.5 0.000
438.0 0.000
438.5 0.000
439.0 0.000
439.5 0.000
440.0 0.000
440.5 0.000
441.0 0.000
441.5 0.000
442.0 0.000
442.5 0.000
443.0 0.000
443.5 0.000
444.0 0.000
444.5 0.000
445.0 0.000
445.5 0.000
446.0 0.000
446.5 0.000
447.0 0.000
447.5 0.000
448.0 0.000
448.5 0.000
449.0 0.000
449.5 0.000
450.0 0.000
450.5 0.000
451.0 0.000
451.5 0.000
452.0 0.000
452.5 0.000
453.0 0.000
453.5 0.000
454.0 0.000
454.5 0.000
455.0 0.000
455.5 0.000
456.0 0.000
456.5 0.000
457.0 0.000
457.5 0.000
458.0 0.000
458.5 0.000
459.0 0.000
459.5 0.000
460.0 0.000
460.5 0.000
461.0 0.000
461.5 0.000
462.0 0.000
462.5 0.000
463.0 0.000
463.5 0.000
464.0 0.000
464.5 0.000
465.0 0.000
465.5 0.000
466.0 0.000
466.5 0.000
467.0 0.000
467.5 0.000
468.0 0.000
468.5 0.000
469.0 0.000
469.5 0.000
470.0 0.000
470.5 0.000
471.0 0.000
471.5 0.000
472.0 0.000
472.5 0.000
473.0 0.000
473.5 0.000
474.0 0.000
474.5 0.000
475.0 0.000
475.5 0.000
476.0 0.000
476.5 0.000
477.0 0.000
477.5 0.000
478.0 0.000
478.5 0.000
479.0 0.000
479.5 0.000
480.0 0.000
480.5 0.000
481.0 0.000
481.5 0.000
482.0 0.000
482.5 0.000
483.0 0.000
483.5 0.000
484.0 0.000
484.5 0.000
485.0 0.000
485.5 0.000
486.0 0.000
486.5 0.000
487.0 0.000
487.5 0.000
488.0 0.000
488.5 0.000
489.0 0.000
489.5 0.000
490.0 0.000
490.5 0.000
491.0 0.000
491.5 0.000
492.0 0.000
492.5 0.000
493.0 0.000
493.5 0.000
494.0 0.000
494.5 0.000
495.0 0.000
495.5 0.000
496.0 0.000
496.5 0.000
497.0 0.000
497.5 0.000
498.0 0.000
498.5 0.000
499.0 0.000
499.5 0.000
500.0 0.000
500.5 0.000
501.0 0.000
501.5 0.000
502.0 0.000
502.5 0.000
503.0 0.000
503.5 0.000
504.0 0.000
504.5 0.000
505.0 0.000
505.5 0.000
506.0 0.000
506.5 0.000
507.0 0.000
507.5 0.000
508.0 0.000
508.5 0.000
509.0 0.000
509.5 0.000
510.0 0.000
510.5 0.000
511.0 0.000
511.5 0.000
512.0 0.000
512.5 0.000
513.0 0.000
513.5 0.000
514.0 0.000
514.5 0.000
515.0 0.000
515.5 0.000
516.0 0.000
516.5 0.000
517.0 0.000
517.5 0.000
518.0 0.000
518.5 0.000
519.0 0.000
519.5 0.000
520.0 0.000
520.5 0.000
521.0 0.000
521.5 0.000
522.0 0.000
522.5 0.000
523.0 0.000
523.5 0.000
524.0 0.000
524.5 0.000
525.0 0.000
525.5 0.000
526.0 0.000
526.5 0.000
527.0 0.000
527.5 0.000
528.0 0.000
528.5 0.000
529.0 0.000
529.5 0.000
530.0 0.000
530.5 0.000
531.0 0.000
531.5 0.000
532.0 0.000
532.5 0.000
533.0 0.000
533.5 0.000
534.0 0.000
534.5 0.000
535.0 0.000
535.5 0.000
536.0 0.000
536.5 0.000
537.0 0.000
537.5 0.000
538.0 0.000
538.5 0.000
539.0 0.000
539.5 0.000
540.0 0.000
540.5 0.000
541.0 0.000
541.5 0.000
542.0 0.000
542.5 0.000
543.0 0.000
543.5 0.000
544.0 0.000
544.5 0.000
545.0 0.000
545.5 0.000
546.0 0.000
546.5 0.000
547.0 0.000
547.5 0.000
548.0 0.000
548.5 0.000
549.0 0.000
549.5 0.000
550.0 0.000
550.5 0.000
551.0 0.000
551.5 0.000
552.0 0.000
552.5 0.000
553.0 0.000
553.5 0.000
554.0 0.000
554.5 0.000
555.0 0.000
555.5 0.000
556.0 0.000
556.5 0.000
557.0 0.000
557.5 0.000
558.0 0.000
558.5 0.000
559.0 0.000
559.5 0.000
560.0 0.000
560.5 0.000
561.0 0.000
561.5 0.000
562.0 0.000
562.5 0.000
563.0 0.000
563.5 0.000
564.0 0.000
564.5 0.000
565.0 0.000
565.5 0.000
566.0 0.000
566.5 0.000
567.0 0.000
567.5 0.000
568.0 0.000
568.5 0.000
569.0 0.000
569.5 0.000
570.0 0.000
570.5 0.000
571.0 0.000
571.5 0.000
572.0 0.000
572.5 0.000
573.0 0.000
573.5 0.000
574.0 0.000
574.5 0.000
575.0 0.000
575.5 0.000
576.0 0.000
576.5 0.000
577.0 0.000
577.5 0.000
578.0 0.000
578.5 0.000
579.0 0.000
579.5 0.000
580.0 0.000
580.5 0.000
581.0 0.000
581.5 0.000
582.0 0.000
582.5 0.000
583.0 0.000
583.5 0.000
584.0 0.000
584.5 0.000
585.0 0.000
585.5 0.000
586.0 0.000
586.5 0.000
587.0 0.000
587.5 0.000
588.0 0.000
588.5 0.000
589.0 0.000
589.5 0.000
590.0 0.000
590.5 0.000
591.0 0.000
591.5 0.000
592.0 0.000
592.5 0.000
593.0 0.000
593.5 0.000
594.0 0.000
594.5 0.000
595.0 0.000
595.5 0.000
596.0 0.000
596.5 0.000
597.0 0.000
597.5 0.000
598.0 0.000
598.5 0.000
599.0 0.000
599.5 0.000
600.0 0.000
600.5 0.000
601.0 0.000
601.5 0.000
602.0 0.000
602.5 0.000
603.0 0.000
603.5 0.000
604.0 0.000
604.5 0.000
605.0 0.000
605.5 0.000
606.0 0.000
606.5 0.000
607.0 0.000
607.5 0.000
608.0 0.000
608.5 0.000
609.0 0.000
609.5 0.000
610.0 0.000
610.5 0.000
611.0 0.000
611.5 0.000
612.0 0.000
612.5 0.000
613.0 0.000
613.5 0.000
614.0 0.000
614.5 0.000
615.0 0.000
615.5 0.000
616.0 0.000
616.5 0.000
617.0 0.000
617.5 0.000
618.0 0.000
618.5 0.000
619.0 0.000
619.5 0.000
620.0 0.000
620.5 0.000
621.0 0.000
621.5 0.000
622.0 0.000
622.5 0.000
623.0 0.000
623.5 0.000
624.0 0.000
624.5 0.000
625.0 0.000
625.5 0.000
626.0 0.000
626.5 0.000
627.0 0.000
627.5 0.000
628.0 0.000
628.5 0.000
629.0 0.000
629.5 0.000
630.0 0.000
630.5 0.000
631.0 0.000
631.5 0.000
632.0 0.000
632.5 0.000
633.0 0.000
633.5 0.000
634.0 0.000
634.5 0.000
635.0 0.000
635.5 0.000
636.0 0.000
636.5 0.000
637.0 0.000
637.5 0.000
638.0 0.000
638.5 0.000
639.0 0.000
639.5 0.000
640.0 0.000
640.5 0.000
641.0 0.000
641.5 0.000
642.0 0.000
642.5 0.000
643.0 0.000
643.5 0.000
644.0 0.000
644.5 0.000
645.0 0.000
645.5 0.000
646.0 0.000
646.5 0.000
647.0 0.000
647.5 0.000
648.0 0.000
648.5 0.000
649.0 0.000
649.5 0.000
650.0 0.000
650.5 0.000
651.0 0.000
651.5 0.000
652.0 0.000
652.5 0.000
653.0 0.000
653.5 0.000
654.0 0.000
654.5 0.000
655.0 0.000
655.5 0.000
656.0 0.000
656.5 0.000
657.0 0.000
657.5 0.000
658.0 0.000
658.5 0.000
659.0 0.000
659.5 0.000
660.0 0.000
660.5 0.000
661.0 0.000
661.5 0.000
662.0 0.000
662.5 0.000
663.0 0.000
663.5 0.000
664.0 0.000
664.5 0.000
665.0 0.000
665.5 0.000
666.0 0.000
666.5 0.000
667.0 0.000
667.5 0.000
668.0 0.000
668.5 0.000
669.0 0.000
669.5 0.000
670.0 0.000
670.5 0.000
671.0 0.000
671.5 0.000
672.0 0.000
672.5 0.000
673.0 0.000
673.5 0.000
674.0 0.000
674.5 0.000
675.0 0.000
675.5 0.000
676.0 0.000
676.5 0.000
677.0 0.000
677.5 0.000
678.0 0.000
678.5 0.000
679.0 0.000
679.5 0.000
680.0 0.000
680.5 0.000
681.0 0.000
681.5 0.000
682.0 0.000
682.5 0.000
683.0 0.000
683.5 0.000
684.0 0.000
684.5 0.000
685.0 0.000
685.5 0.000
686.0 0.000
686.5 0.000
687.0 0.000
687.5 0.000
688.0 0.000
688.5 0.000
689.0 0.000
689.5 0.000
690.0 0.000
690.5 0.000
691.0 0.000
691.5 0.000
692.0 0.000
692.5 0.000
693.0 0.000
693.5 0.000
694.0 0.000
694.5 0.000
695.0 0.000
695.5 0.000
696.0 0.000
696.5 0.000
697.0 0.000
697.5 0.000
698.0 0.000
698.5 0.000
699.0 0.000
699.5 0.000
700.0 0.000
700.5 0.000
701.0 0.000
701.5 0.000
702.0 0.000
702.5 0.000
703.0 0.000
703.5 0.000
704.0 0.000
704.5 0.000
705.0 0.000
705.5 0.000
706.0 0.000
706.5 0.000
707.0 0.000
707.5 0.000
708.0 0.000
708.5 0.000
709.0 0.000
709.5 0.000
710.0 0.000
710.5 0.000
711.0 0.000
711.5 0.000
712.0 0.000
712.5 0.000
713.0 0.000
713.5 0.000
714.0 0.000
714.5 0.000
715.0 0.000
715.5 0.000
716.0 0.000
716.5 0.000
717.0 0.000
717.5 0.000
718.0 0.000
718.5 0.000
719.0 0.000
719.5 0.000
720.0 0.000
720.5 0.000
721.0 0.000
721.5 0.000
722.0 0.000
722.5 0.000
723.0 0.000
723.5 0.000
724.0 0.000
724.5 0.000
725.0 0.000
725.5 0.000
726.0 0.000
726.5 0.000
727.0 0.000
727.5 0.000
728.0 0.000
728.5 0.000
729.0 0.000
729.5 0.000
730.0 0.000
730.5 0.000
731.0 0.000
731.5 0.000
732.0 0.000
732.5 0.000
733.0 0.000
733.5 0.000
734.0 0.000
734.5 0.000
735.0 0.000
735.5 0.000
736.0 0.000
736.5 0.000
737.0 0.000
737.5 0.000
738.0 0.000
738.5 0.000
739.0 0.000
739.5 0.000
740.0 0.000
740.5 0.000
741.0 0.000
741.5 0.000
742.0 0.000
742.5 0.000
743.0 0.000
743.5 0.000
744.0 0.000
744.5 0.000
745.0 0.000
745.5 0.000
746.0 0.000
746.5 0.000
747.0 0.000
747.5 0.000
748.0 0.000
748.5 0.000
749.0 0.000
749.5 0.000
750.0 0.000
750.5 0.000
751.0 0.000
751.5 0.000
752.0 0.000
752.5 0.000
753.0 0.000
753.5 0.000
754.0 0.000
754.5 0.000
755.0 0.000
755.5 0.000
756.0 0.000
756.5 0.000
757.0 0.000
757.5 0.000
758.0 0.000
758.5 0.000
759.0 0.000
759.5 0.000
760.0 0.000
760.5 0.000
761.0 0.000
761.5 0.000
762.0 0.000
762.5 0.000
763.0 0.000
763.5 0.000
764.0 0.000
764.5 0.000
765.0 0.000
765.5 0.000
766.0 0.000
766.5 0.000
767.0 0.000
767.5 0.000
768.0 0.000
768.5 0.000
769.0 0.000
769.5 0.000
770.0 0.000
770.5 0.000
771.0 0.000
771.5 0.000
772.0 0.000
772.5 0.000
773.0 0.000
773.5 0.000
774.0 0.000
774.5 0.000
775.0 0.000
775.5 0.000
776.0 0.000
776.5 0.000
777.0 0.000
777.5 0.000
778.0 0.000
778.5 0.000
779.0 0.000
779.5 0.000
780.0 0.000
780.5 0.000
781.0 0.000
781.5 0.000
782.0 0.000
782.5 0.000
783.0 0.000
783.5 0.000
784.0 0.000
784.5 0.000
785.0 0.000
785.5 0.000
786.0 0.000
786.5 0.000
787.0 0.000
787.5 0.000
788.0 0.000
788.5 0.000
789.0 0.000
789.5 0.000
790.0 0.000
790.5 0.000
791.0 0.000
791.5 0.000
792.0 0.000
792.5 0.000
793.0 0.000
793.5 0.000
794.0 0.000
794.5 0.000
795.0 0.000
795.5 0.000
796.0 0.000
796.5 0.000
797.0 0.000
797.5 0.000
798.0 0.000
798.5 0.000
799.0 0.000
799.5 0.000
800.0 0.000
800.5 0.000
801.0 0.000
801.5 0.000
802.0 0.000
802.5 0.000
803.0 0.000
803.5 0.000
804.0 0.000
804.5 0.000
805.0 0.000
805.5 0.001
806.0 0.001
806.5 0.001
807.0 0.000
807.5 0.000
808.0 0.000
808.5 0.000
809.0 0.000
809.5 0.000
810.0 0.000
810.5 0.000
811.0 0.000
811.5 0.000
812.0 0.000
812.5 0.001
813.0 0.001
813.5 0.000
814.0 0.000
814.5 0.000
815.0 0.001
815.5 0.001
816.0 0.002
816.5 0.002
817.0 0.002
817.5 0.002
818.0 0.003
818.5 0.003
819.0 0.003
819.5 0.003
820.0 0.003
820.5 0.003
821.0 0.003
821.5 0.004
822.0 0.004
822.5 0.006
823.0 0.007
823.5 0.007
824.0 0.008
824.5 0.009
825.0 0.010
825.5 0.011
826.0 0.013
826.5 0.014
827.0 0.016
827.5 0.019
828.0 0.021
828.5 0.023
829.0 0.026
829.5 0.029
830.0 0.033
830.5 0.038
831.0 0.043
831.5 0.049
832.0 0.055
832.5 0.061
833.0 0.069
833.5 0.077
834.0 0.087
834.5 0.098
835.0 0.110
835.5 0.122
836.0 0.138
836.5 0.155
837.0 0.175
837.5 0.195
838.0 0.219
838.5 0.243
839.0 0.273
839.5 0.305
840.0 0.339
840.5 0.374
841.0 0.414
841.5 0.456
842.0 0.498
842.5 0.541
843.0 0.587
843.5 0.634
844.0 0.679
844.5 0.723
845.0 0.763
845.5 0.802
846.0 0.838
846.5 0.873
847.0 0.900
847.5 0.924
848.0 0.945
848.5 0.967
849.0 0.976
849.5 0.983
850.0 0.991
850.5 0.999
851.0 0.999
851.5 0.998
852.0 0.997
852.5 0.996
853.0 0.991
853.5 0.986
854.0 0.982
854.5 0.979
855.0 0.975
855.5 0.971
856.0 0.965
856.5 0.958
857.0 0.956
857.5 0.954
858.0 0.948
858.5 0.941
859.0 0.941
859.5 0.940
860.0 0.935
860.5 0.930
861.0 0.930
861.5 0.930
862.0 0.926
862.5 0.923
863.0 0.918
863.5 0.914
864.0 0.916
864.5 0.917
865.0 0.915
865.5 0.913
866.0 0.914
866.5 0.915
867.0 0.911
867.5 0.907
868.0 0.907
868.5 0.907
869.0 0.903
869.5 0.899
870.0 0.896
870.5 0.893
871.0 0.886
871.5 0.880
872.0 0.870
872.5 0.860
873.0 0.849
873.5 0.837
874.0 0.818
874.5 0.799
875.0 0.779
875.5 0.758
876.0 0.729
876.5 0.699
877.0 0.670
877.5 0.638
878.0 0.603
878.5 0.567
879.0 0.531
879.5 0.495
880.0 0.460
880.5 0.425
881.0 0.391
881.5 0.358
882.0 0.328
882.5 0.299
883.0 0.272
883.5 0.246
884.0 0.224
884.5 0.202
885.0 0.182
885.5 0.163
886.0 0.148
886.5 0.133
887.0 0.119
887.5 0.107
888.0 0.096
888.5 0.086
889.0 0.078
889.5 0.069
890.0 0.062
890.5 0.055
891.0 0.049
891.5 0.043
892.0 0.038
892.5 0.034
893.0 0.031
893.5 0.027
894.0 0.025
894.5 0.022
895.0 0.020
895.5 0.017
896.0 0.015
896.5 0.014
897.0 0.012
897.5 0.011
898.0 0.010
898.5 0.009
899.0 0.008
899.5 0.007
900.0 0.006
900.5 0.006
901.0 0.005
901.5 0.004
902.0 0.004
902.5 0.004
903.0 0.004
903.5 0.003
904.0 0.003
904.5 0.003
905.0 0.003
905.5 0.003
906.0 0.002
906.5 0.002
907.0 0.002
907.5 0.002
908.0 0.001
908.5 0.001
909.0 0.001
909.5 0.001
910.0 0.002
910.5 0.002
911.0 0.001
911.5 0.001
912.0 0.001
912.5 0.001
913.0 0.000
913.5 0.000
914.0 0.000
914.5 0.000
915.0 0.000
915.5 0.000
916.0 0.000
916.5 0.000
917.0 0.000
917.5 0.000
918.0 0.000
918.5 0.000
919.0 0.000
919.5 0.000
920.0 0.000
920.5 0.000
921.0 0.000
921.5 0.000
922.0 0.000
922.5 0.000
923.0 0.000
923.5 0.000
924.0 0.000
924.5 0.000
925.0 0.000
925.5 0.000
926.0 0.000
926.5 0.000
927.0 0.000
927.5 0.000
928.0 0.000
928.5 0.000
929.0 0.000
929.5 0.000
930.0 0.000
930.5 0.000
931.0 0.000
931.5 0.000
932.0 0.000
932.5 0.000
933.0 0.000
933.5 0.000
934.0 0.000
934.5 0.000
935.0 0.000
935.5 0.000
936.0 0.000
936.5 0.000
937.0 0.000
937.5 0.000
938.0 0.000
938.5 0.000
939.0 0.000
939.5 0.000
940.0 0.000
